Data from USB4A006151_12-59-42-932.txt Node
Date: Tue May 09 12:59:42 EDT 2023
User: Emmanuel
Spectrometer: USB4A00615
Scans to average: 1
Trigger mode: 4
Integration Time (sec): 2.400000E-2
Electric dark correction enabled: true
Boxcar width: 0
XAxis mode: Wavelengths
Number of Pixels in Spectrum: 3648
>>>>>Begin Spectral Data<<<<<
346.606	33366.87
346.818	33366.87
347.029	33366.87
347.241	-33.45
347.452	-29.35
347.664	3.41
347.876	-0.68
348.087	-17.07
348.299	13.65
348.51	46.42
348.722	-31.4
348.933	34.13
349.145	-4.78
349.356	27.99
349.568	-17.07
349.779	-29.35
349.991	-25.26
350.202	1.37
350.414	36.18
350.625	34.13
350.836	25.94
351.048	19.8
351.259	36.18
351.471	40.28
351.682	-12.97
351.893	71
352.105	93.52
352.316	-25.26
352.527	58.71
352.739	-45.74
352.95	40.28
353.161	19.8
353.372	32.08
353.584	30.04
353.795	11.61
354.006	-2.73
354.217	-27.31
354.429	7.51
354.64	34.13
354.851	-17.07
355.062	42.32
355.274	23.89
355.485	36.18
355.696	85.33
355.907	54.61
356.118	25.94
356.329	-8.87
356.54	50.52
356.752	46.42
356.963	64.85
357.174	-10.92
357.385	93.52
357.596	48.47
357.807	-55.98
358.018	42.32
358.229	-49.83
358.44	15.7
358.651	11.61
358.862	13.65
359.073	64.85
359.284	77.14
359.495	81.24
359.706	62.8
359.917	64.85
360.128	1.37
360.339	19.8
360.55	-0.68
360.761	36.18
360.972	42.32
361.182	58.71
361.393	81.24
361.604	56.66
361.815	-4.78
362.026	48.47
362.237	36.18
362.447	46.42
362.658	25.94
362.869	34.13
363.08	-31.4
363.291	46.42
363.501	44.37
363.712	71
363.923	103.76
364.134	15.7
364.344	154.96
364.555	144.72
364.766	290.13
364.976	714.06
365.187	1162.56
365.398	1559.87
365.608	2174.26
365.819	2645.29
366.03	3003.69
366.24	3349.79
366.451	3491.1
366.662	3194.15
366.872	2569.52
367.083	2364.72
367.293	1844.54
367.504	1377.6
367.714	1041.73
367.925	763.21
368.135	507.21
368.346	306.51
368.557	185.68
368.767	130.39
368.977	130.39
369.188	-6.83
369.398	75.09
369.609	-19.11
369.819	38.23
370.03	52.56
370.24	34.13
370.451	52.56
370.661	36.18
370.871	23.89
371.082	99.67
371.292	87.38
371.502	52.56
371.713	13.65
371.923	83.28
372.133	-15.02
372.344	-47.79
372.554	-21.16
372.764	-17.07
372.975	34.13
373.185	48.47
373.395	1.37
373.605	30.04
373.816	71
374.026	-2.73
374.236	17.75
374.446	56.66
374.656	122.2
374.867	83.28
375.077	128.34
375.287	38.23
375.497	15.7
375.707	-6.83
375.917	64.85
376.127	-29.35
376.338	-0.68
376.548	-10.92
376.758	3.41
376.968	81.24
377.178	54.61
377.388	25.94
377.598	111.96
377.808	7.51
378.018	68.95
378.228	-8.87
378.438	36.18
378.648	23.89
378.858	9.56
379.068	66.9
379.278	89.43
379.488	116.05
379.698	25.94
379.908	1.37
380.118	-15.02
380.327	32.08
380.537	13.65
380.747	97.62
380.957	50.52
381.167	62.8
381.377	44.37
381.587	71
381.796	-31.4
382.006	157.01
382.216	64.85
382.426	9.56
382.636	25.94
382.845	85.33
383.055	54.61
383.265	-6.83
383.475	107.86
383.684	50.52
383.894	157.01
384.104	21.84
384.313	46.42
384.523	17.75
384.733	5.46
384.942	87.38
385.152	89.43
385.362	56.66
385.571	13.65
385.781	11.61
385.991	73.04
386.2	19.8
386.41	9.56
386.619	11.61
386.829	46.42
387.038	120.15
387.248	1.37
387.457	54.61
387.667	50.52
387.876	30.04
388.086	-0.68
388.295	30.04
388.505	30.04
388.714	36.18
388.924	58.71
389.133	34.13
389.343	52.56
389.552	38.23
389.762	27.99
389.971	73.04
390.18	46.42
390.39	87.38
390.599	42.32
390.808	142.68
391.018	17.75
391.227	19.8
391.436	79.19
391.646	21.84
391.855	75.09
392.064	32.08
392.274	56.66
392.483	52.56
392.692	34.13
392.901	21.84
393.111	25.94
393.32	19.8
393.529	81.24
393.738	25.94
393.947	68.95
394.157	1.37
394.366	38.23
394.575	17.75
394.784	5.46
394.993	3.41
395.202	17.75
395.411	142.68
395.62	85.33
395.83	19.8
396.039	23.89
396.248	159.06
396.457	17.75
396.666	36.18
396.875	32.08
397.084	15.7
397.293	93.52
397.502	95.57
397.711	136.53
397.92	56.66
398.129	44.37
398.338	71
398.547	68.95
398.756	144.72
398.965	116.05
399.174	36.18
399.382	13.65
399.591	107.86
399.8	105.81
400.009	152.91
400.218	91.48
400.427	71
400.636	62.8
400.844	128.34
401.053	89.43
401.262	23.89
401.471	138.58
401.68	32.08
401.888	116.05
402.097	64.85
402.306	126.29
402.515	77.14
402.723	122.2
402.932	68.95
403.141	132.44
403.35	128.34
403.558	204.11
403.767	179.54
403.976	224.59
404.184	1070.4
404.393	3712.28
404.602	7093.48
404.81	9084.11
405.019	10132.67
405.227	10538.16
405.436	10529.97
405.645	9981.12
405.853	9665.73
406.062	8477.91
406.27	5244.17
406.479	2563.37
406.687	742.73
406.896	365.9
407.104	171.35
407.313	228.69
407.521	445.77
407.73	675.15
407.938	1002.82
408.147	1064.26
408.355	996.68
408.563	1021.25
408.772	1031.49
408.98	859.46
409.189	816.46
409.397	507.21
409.605	286.03
409.814	163.15
410.022	146.77
410.23	128.34
410.439	146.77
410.647	23.89
410.855	105.81
411.064	118.1
411.272	95.57
411.48	99.67
411.688	91.48
411.897	144.72
412.105	169.3
412.313	105.81
412.521	25.94
412.73	146.77
412.938	21.84
413.146	46.42
413.354	73.04
413.562	122.2
413.77	85.33
413.979	52.56
414.187	71
414.395	75.09
414.603	44.37
414.811	161.11
415.019	68.95
415.227	44.37
415.435	109.91
415.643	142.68
415.851	220.5
416.059	91.48
416.267	171.35
416.475	142.68
416.683	148.82
416.891	87.38
417.099	193.87
417.307	42.32
417.515	150.87
417.723	19.8
417.931	93.52
418.139	107.86
418.347	114
418.555	111.96
418.763	-0.68
418.971	81.24
419.179	30.04
419.386	114
419.594	206.16
419.802	140.63
420.01	183.63
420.218	243.03
420.426	189.78
420.633	171.35
420.841	187.73
421.049	128.34
421.257	130.39
421.464	99.67
421.672	77.14
421.88	124.24
422.088	105.81
422.295	93.52
422.503	54.61
422.711	34.13
422.918	73.04
423.126	120.15
423.334	44.37
423.541	120.15
423.749	44.37
423.956	25.94
424.164	-23.21
424.372	105.81
424.579	75.09
424.787	19.8
424.994	71
425.202	142.68
425.409	187.73
425.617	-23.21
425.824	32.08
426.032	120.15
426.239	66.9
426.447	48.47
426.654	93.52
426.862	146.77
427.069	212.31
427.277	68.95
427.484	140.63
427.692	107.86
427.899	173.39
428.106	128.34
428.314	77.14
428.521	150.87
428.728	116.05
428.936	122.2
429.143	54.61
429.351	171.35
429.558	132.44
429.765	177.49
429.972	140.63
430.18	140.63
430.387	140.63
430.594	202.07
430.801	177.49
431.009	163.15
431.216	109.91
431.423	85.33
431.63	124.24
431.838	44.37
432.045	126.29
432.252	126.29
432.459	159.06
432.666	97.62
432.873	148.82
433.081	206.16
433.288	267.6
433.495	343.38
433.702	335.18
433.909	345.42
434.116	458.06
434.323	666.96
434.53	765.26
434.737	845.13
434.944	1490.24
435.151	6278.39
435.358	17507.4
435.565	27286.45
435.772	35101.5
435.979	41009.89
436.186	43545.28
436.393	42461.9
436.6	41132.77
436.807	36262.7
437.014	28494.75
437.221	15441
437.428	5946.62
437.635	1946.94
437.841	623.95
438.048	337.23
438.255	292.18
438.462	290.13
438.669	261.46
438.876	249.17
439.082	212.31
439.289	191.83
439.496	189.78
439.703	114
439.91	132.44
440.116	138.58
440.323	183.63
440.53	148.82
440.737	132.44
440.943	91.48
441.15	58.71
441.357	93.52
441.563	89.43
441.77	103.76
441.977	23.89
442.183	79.19
442.39	83.28
442.597	79.19
442.803	101.72
443.01	50.52
443.216	93.52
443.423	66.9
443.63	62.8
443.836	66.9
444.043	97.62
444.249	128.34
444.456	7.51
444.662	79.19
444.869	134.48
445.075	48.47
445.282	58.71
445.488	46.42
445.695	134.48
445.901	19.8
446.107	-17.07
446.314	111.96
446.52	54.61
446.727	89.43
446.933	23.89
447.139	36.18
447.346	89.43
447.552	21.84
447.759	46.42
447.965	64.85
448.171	68.95
448.378	38.23
448.584	50.52
448.79	54.61
448.996	32.08
449.203	68.95
449.409	3.41
449.615	38.23
449.821	68.95
450.028	114
450.234	109.91
450.44	116.05
450.646	134.48
450.852	116.05
451.059	77.14
451.265	130.39
451.471	89.43
451.677	44.37
451.883	107.86
452.089	109.91
452.295	66.9
452.502	87.38
452.708	-49.83
452.914	71
453.12	44.37
453.326	7.51
453.532	91.48
453.738	-31.4
453.944	30.04
454.15	126.29
454.356	54.61
454.562	25.94
454.768	126.29
454.974	64.85
455.18	73.04
455.386	9.56
455.592	114
455.798	52.56
456.003	17.75
456.209	-10.92
456.415	58.71
456.621	54.61
456.827	3.41
457.033	27.99
457.239	23.89
457.444	103.76
457.65	21.84
457.856	34.13
458.062	23.89
458.268	89.43
458.473	21.84
458.679	25.94
458.885	13.65
459.091	103.76
459.296	52.56
459.502	116.05
459.708	75.09
459.914	17.75
460.119	7.51
460.325	5.46
460.531	36.18
460.736	-0.68
460.942	30.04
461.147	109.91
461.353	79.19
461.559	44.37
461.764	17.75
461.97	85.33
462.175	60.76
462.381	91.48
462.587	-92.84
462.792	68.95
462.998	44.37
463.203	91.48
463.409	95.57
463.614	-12.97
463.82	77.14
464.025	60.76
464.231	54.61
464.436	68.95
464.641	11.61
464.847	34.13
465.052	15.7
465.258	50.52
465.463	25.94
465.669	1.37
465.874	73.04
466.079	9.56
466.285	105.81
466.49	25.94
466.695	89.43
466.901	42.32
467.106	17.75
467.311	25.94
467.516	52.56
467.722	-4.78
467.927	27.99
468.132	11.61
468.338	68.95
468.543	9.56
468.748	27.99
468.953	32.08
469.158	42.32
469.364	-47.79
469.569	83.28
469.774	109.91
469.979	40.28
470.184	25.94
470.389	23.89
470.594	17.75
470.8	83.28
471.005	77.14
471.21	118.1
471.415	-19.11
471.62	87.38
471.825	1.37
472.03	21.84
472.235	25.94
472.44	126.29
472.645	25.94
472.85	52.56
473.055	17.75
473.26	58.71
473.465	36.18
473.67	85.33
473.875	15.7
474.08	50.52
474.285	23.89
474.49	85.33
474.695	81.24
474.899	21.84
475.104	44.37
475.309	30.04
475.514	66.9
475.719	34.13
475.924	87.38
476.128	130.39
476.333	128.34
476.538	66.9
476.743	-43.69
476.948	36.18
477.152	54.61
477.357	71
477.562	15.7
477.767	-21.16
477.971	62.8
478.176	1.37
478.381	52.56
478.585	34.13
478.79	-15.02
478.995	95.57
479.199	-15.02
479.404	58.71
479.609	42.32
479.813	85.33
480.018	73.04
480.223	42.32
480.427	27.99
480.632	-27.31
480.836	85.33
481.041	138.58
481.245	11.61
481.45	17.75
481.654	50.52
481.859	154.96
482.063	23.89
482.268	17.75
482.472	54.61
482.677	83.28
482.881	17.75
483.086	-35.5
483.29	79.19
483.495	95.57
483.699	44.37
483.903	13.65
484.108	48.47
484.312	103.76
484.517	38.23
484.721	23.89
484.925	91.48
485.13	3.41
485.334	36.18
485.538	23.89
485.743	30.04
485.947	50.52
486.151	56.66
486.355	7.51
486.56	44.37
486.764	27.99
486.968	30.04
487.172	62.8
487.377	56.66
487.581	101.72
487.785	30.04
487.989	46.42
488.193	42.32
488.397	62.8
488.602	9.56
488.806	36.18
489.01	42.32
489.214	11.61
489.418	13.65
489.622	68.95
489.826	68.95
490.03	101.72
490.234	56.66
490.438	132.44
490.642	109.91
490.846	179.54
491.05	175.44
491.254	251.22
491.458	341.33
491.662	206.16
491.866	232.79
492.07	181.59
492.274	114
492.478	173.39
492.682	132.44
492.886	36.18
493.09	23.89
493.294	95.57
493.498	34.13
493.701	62.8
493.905	40.28
494.109	87.38
494.313	1.37
494.517	-39.59
494.721	87.38
494.924	36.18
495.128	34.13
495.332	116.05
495.536	-4.78
495.739	46.42
495.943	62.8
496.147	46.42
496.351	25.94
496.554	54.61
496.758	-6.83
496.962	116.05
497.165	-21.16
497.369	52.56
497.573	-15.02
497.776	101.72
497.98	-4.78
498.184	66.9
498.387	71
498.591	30.04
498.794	83.28
498.998	62.8
499.202	44.37
499.405	17.75
499.609	48.47
499.812	64.85
500.016	64.85
500.219	13.65
500.423	34.13
500.626	7.51
500.83	52.56
501.033	66.9
501.237	50.52
501.44	66.9
501.643	44.37
501.847	-43.69
502.05	73.04
502.254	25.94
502.457	15.7
502.66	122.2
502.864	111.96
503.067	56.66
503.271	71
503.474	87.38
503.677	132.44
503.88	23.89
504.084	5.46
504.287	62.8
504.49	7.51
504.694	71
504.897	91.48
505.1	44.37
505.303	-33.45
505.507	25.94
505.71	19.8
505.913	44.37
506.116	17.75
506.319	-33.45
506.522	46.42
506.726	66.9
506.929	36.18
507.132	103.76
507.335	36.18
507.538	71
507.741	54.61
507.944	38.23
508.147	38.23
508.35	73.04
508.553	13.65
508.756	23.89
508.959	105.81
509.163	42.32
509.366	114
509.569	32.08
509.771	99.67
509.974	-4.78
510.177	79.19
510.38	11.61
510.583	60.76
510.786	66.9
510.989	56.66
511.192	-6.83
511.395	-41.64
511.598	64.85
511.801	68.95
512.004	-6.83
512.206	101.72
512.409	77.14
512.612	60.76
512.815	25.94
513.018	73.04
513.22	34.13
513.423	30.04
513.626	75.09
513.829	52.56
514.032	68.95
514.234	91.48
514.437	68.95
514.64	79.19
514.842	71
515.045	60.76
515.248	85.33
515.45	56.66
515.653	40.28
515.856	48.47
516.058	138.58
516.261	40.28
516.464	42.32
516.666	134.48
516.869	120.15
517.071	83.28
517.274	7.51
517.477	91.48
517.679	157.01
517.882	93.52
518.084	71
518.287	140.63
518.489	91.48
518.692	44.37
518.894	32.08
519.097	64.85
519.299	60.76
519.501	85.33
519.704	71
519.906	62.8
520.109	101.72
520.311	60.76
520.514	68.95
520.716	21.84
520.918	105.81
521.121	159.06
521.323	116.05
521.525	150.87
521.728	134.48
521.93	132.44
522.132	116.05
522.335	134.48
522.537	56.66
522.739	56.66
522.941	99.67
523.144	116.05
523.346	114
523.548	163.15
523.75	152.91
523.952	167.25
524.155	159.06
524.357	79.19
524.559	85.33
524.761	171.35
524.963	148.82
525.165	97.62
525.368	136.53
525.57	103.76
525.772	109.91
525.974	30.04
526.176	83.28
526.378	114
526.58	159.06
526.782	44.37
526.984	40.28
527.186	114
527.388	163.15
527.59	79.19
527.792	130.39
527.994	132.44
528.196	15.7
528.398	105.81
528.6	30.04
528.802	50.52
529.004	152.91
529.206	71
529.408	-0.68
529.609	34.13
529.811	11.61
530.013	85.33
530.215	128.34
530.417	-15.02
530.619	105.81
530.821	73.04
531.022	77.14
531.224	34.13
531.426	17.75
531.628	60.76
531.829	71
532.031	56.66
532.233	54.61
532.435	5.46
532.636	30.04
532.838	83.28
533.04	73.04
533.241	38.23
533.443	60.76
533.645	-12.97
533.846	97.62
534.048	64.85
534.25	50.52
534.451	48.47
534.653	111.96
534.855	83.28
535.056	3.41
535.258	116.05
535.459	171.35
535.661	109.91
535.862	23.89
536.064	62.8
536.265	38.23
536.467	77.14
536.668	-0.68
536.87	15.7
537.071	73.04
537.273	-15.02
537.474	17.75
537.676	114
537.877	89.43
538.078	124.24
538.28	85.33
538.481	81.24
538.683	136.53
538.884	173.39
539.085	298.32
539.287	208.21
539.488	267.6
539.689	261.46
539.891	283.98
540.092	220.5
540.293	298.32
540.495	230.74
540.696	216.4
540.897	169.3
541.098	261.46
541.3	228.69
541.501	163.15
541.702	99.67
541.903	257.36
542.104	234.83
542.306	212.31
542.507	243.03
542.708	197.97
542.909	197.97
543.11	261.46
543.311	294.22
543.512	279.89
543.713	308.56
543.915	531.79
544.116	1746.23
544.317	9553.09
544.518	21949.45
544.719	33360.73
544.92	42494.67
545.121	49570.4
545.322	54919.7
545.523	58143.2
545.724	60430.78
545.925	58999.25
546.126	52343.35
546.327	37198.62
546.528	24755.16
546.729	15887.46
546.929	9338.05
547.13	4873.48
547.331	2489.65
547.532	1219.91
547.733	626
547.934	445.77
548.135	386.38
548.336	392.53
548.536	290.13
548.737	169.3
548.938	206.16
549.139	161.11
549.34	193.87
549.54	265.55
549.741	146.77
549.942	136.53
550.143	152.91
550.343	204.11
550.544	132.44
550.745	120.15
550.945	150.87
551.146	97.62
551.347	116.05
551.547	103.76
551.748	128.34
551.949	191.83
552.149	101.72
552.35	114
552.551	81.24
552.751	27.99
552.952	27.99
553.152	54.61
553.353	46.42
553.553	64.85
553.754	99.67
553.954	64.85
554.155	58.71
554.356	87.38
554.556	124.24
554.756	66.9
554.957	75.09
555.157	150.87
555.358	7.51
555.558	64.85
555.759	91.48
555.959	116.05
556.159	103.76
556.36	136.53
556.56	159.06
556.761	66.9
556.961	116.05
557.161	146.77
557.362	107.86
557.562	58.71
557.762	109.91
557.963	114
558.163	60.76
558.363	73.04
558.563	126.29
558.764	32.08
558.964	169.3
559.164	54.61
559.364	23.89
559.565	105.81
559.765	103.76
559.965	3.41
560.165	101.72
560.365	19.8
560.565	101.72
560.766	81.24
560.966	17.75
561.166	101.72
561.366	81.24
561.566	95.57
561.766	-0.68
561.966	42.32
562.166	-0.68
562.366	36.18
562.566	68.95
562.766	97.62
562.966	48.47
563.166	58.71
563.366	68.95
563.566	40.28
563.766	83.28
563.966	89.43
564.166	73.04
564.366	36.18
564.566	73.04
564.766	93.52
564.966	34.13
565.166	81.24
565.366	44.37
565.565	-35.5
565.765	-19.11
565.965	77.14
566.165	27.99
566.365	95.57
566.565	77.14
566.764	52.56
566.964	36.18
567.164	38.23
567.364	107.86
567.564	105.81
567.763	50.52
567.963	64.85
568.163	144.72
568.362	36.18
568.562	77.14
568.762	68.95
568.961	34.13
569.161	42.32
569.361	95.57
569.56	66.9
569.76	83.28
569.96	167.25
570.159	48.47
570.359	154.96
570.558	87.38
570.758	118.1
570.958	101.72
571.157	120.15
571.357	52.56
571.556	185.68
571.756	85.33
571.955	138.58
572.155	99.67
572.354	38.23
572.554	210.26
572.753	114
572.953	152.91
573.152	134.48
573.351	77.14
573.551	132.44
573.75	101.72
573.95	81.24
574.149	136.53
574.348	109.91
574.548	152.91
574.747	410.96
574.946	2065.72
575.146	4611.34
575.345	6362.36
575.544	8705.23
575.744	10869.94
575.943	12666
576.142	13122.7
576.342	12453.02
576.541	12301.47
576.74	11121.84
576.939	8961.23
577.138	9405.64
577.338	10642.61
577.537	11570.34
577.736	12487.83
577.935	12749.97
578.134	13055.12
578.333	13360.27
578.533	13331.59
578.732	12254.36
578.931	10683.57
579.13	6853.87
579.329	4529.42
579.528	3128.61
579.727	2131.25
579.926	1307.97
580.125	664.91
580.324	466.25
580.523	286.03
580.722	236.88
580.921	114
581.12	204.11
581.319	89.43
581.518	68.95
581.717	52.56
581.916	83.28
582.115	93.52
582.314	87.38
582.513	101.72
582.712	95.57
582.911	62.8
583.109	64.85
583.308	62.8
583.507	21.84
583.706	56.66
583.905	118.1
584.104	60.76
584.302	58.71
584.501	87.38
584.7	101.72
584.899	15.7
585.098	68.95
585.296	36.18
585.495	32.08
585.694	3.41
585.892	27.99
586.091	52.56
586.29	25.94
586.488	60.76
586.687	50.52
586.886	1.37
587.084	40.28
587.283	120.15
587.482	109.91
587.68	17.75
587.879	93.52
588.077	89.43
588.276	46.42
588.475	11.61
588.673	99.67
588.872	89.43
589.07	25.94
589.269	140.63
589.467	17.75
589.666	140.63
589.864	75.09
590.063	154.96
590.261	21.84
590.46	107.86
590.658	30.04
590.857	34.13
591.055	1.37
591.253	56.66
591.452	23.89
591.65	66.9
591.848	23.89
592.047	66.9
592.245	68.95
592.444	32.08
592.642	32.08
592.84	3.41
593.038	85.33
593.237	-12.97
593.435	138.58
593.633	21.84
593.832	30.04
594.03	95.57
594.228	34.13
594.426	77.14
594.624	1.37
594.823	58.71
595.021	5.46
595.219	34.13
595.417	83.28
595.615	-45.74
595.813	17.75
596.012	-8.87
596.21	56.66
596.408	27.99
596.606	11.61
596.804	3.41
597.002	42.32
597.2	134.48
597.398	85.33
597.596	17.75
597.794	101.72
597.992	56.66
598.19	64.85
598.388	19.8
598.586	93.52
598.784	21.84
598.982	-23.21
599.18	97.62
599.378	7.51
599.576	13.65
599.774	64.85
599.972	34.13
600.17	44.37
600.368	42.32
600.565	19.8
600.763	15.7
600.961	50.52
601.159	23.89
601.357	48.47
601.555	52.56
601.752	15.7
601.95	34.13
602.148	118.1
602.346	44.37
602.544	73.04
602.741	114
602.939	50.52
603.137	87.38
603.334	56.66
603.532	34.13
603.73	116.05
603.927	77.14
604.125	89.43
604.323	105.81
604.52	56.66
604.718	36.18
604.916	93.52
605.113	-39.59
605.311	124.24
605.508	-49.83
605.706	48.47
605.904	48.47
606.101	66.9
606.299	46.42
606.496	60.76
606.694	-12.97
606.891	122.2
607.089	68.95
607.286	27.99
607.484	36.18
607.681	126.29
607.879	58.71
608.076	40.28
608.273	-2.73
608.471	81.24
608.668	21.84
608.866	126.29
609.063	64.85
609.26	71
609.458	77.14
609.655	71
609.852	54.61
610.05	42.32
610.247	99.67
610.444	116.05
610.642	101.72
610.839	48.47
611.036	1.37
611.233	111.96
611.431	95.57
